#RAD(Kpc) RAD(arcs)  VROT(km/s) DISP(km/s) INC(deg)  P.A.(deg) Z0(pc)    Z0(arcs)  SIG(E20)  XPOS(pix) YPOS(pix) VSYS(km/s) VRAD(km/s) E_VROT1   E_VROT2   E_DISP1   E_DISP2   
0.233     15.000     122.573    20.112     60.000    114.359   155.144   10.000    1.000     77.000    77.000    182.800    0.000      -19.749   15.544    -8.121    9.899     
0.698     45.000     142.466    13.246     60.000    125.222   155.144   10.000    1.000     77.000    77.000    182.800    0.000      -11.161   10.456    -8.505    8.000     
1.164     75.000     149.780    9.497      60.000    127.517   155.144   10.000    1.000     77.000    77.000    182.800    0.000      -9.108    7.726     -6.652    7.636     
1.629     105.000    153.025    10.342     60.000    126.930   155.144   10.000    1.000     77.000    77.000    182.800    0.000      -9.108    8.879     -7.048    7.779     
2.094     135.000    157.241    9.334      60.000    125.050   155.144   10.000    1.000     77.000    77.000    182.800    0.000      -9.782    9.819     -7.412    8.556     
2.560     165.000    164.993    8.508      60.000    122.736   155.144   10.000    1.000     77.000    77.000    182.800    0.000      -11.631   9.189     -10.001   10.001    
3.025     195.000    165.096    12.398     60.000    120.567   155.144   10.000    1.000     77.000    77.000    182.800    0.000      -9.125    8.875     -8.060    8.061     
3.491     225.000    170.032    12.864     60.000    118.888   155.144   10.000    1.000     77.000    77.000    182.800    0.000      -9.310    8.135     -7.605    8.188     
3.956     255.000    176.373    11.840     60.000    117.897   155.144   10.000    1.000     77.000    77.000    182.800    0.000      -9.309    8.900     -7.463    8.609     
4.422     285.000    180.787    10.295     60.000    117.728   155.144   10.000    1.000     77.000    77.000    182.800    0.000      -11.062   10.621    -7.273    10.106    
4.887     315.000    189.970    4.009      60.000    118.440   155.144   10.000    1.000     77.000    77.000    182.800    0.000      -8.655    8.608     -11.262   11.262    
5.352     345.000    192.446    1.460      60.000    119.957   155.144   10.000    1.000     77.000    77.000    182.800    0.000      -8.508    8.605     -9.306    9.306     
5.818     375.000    190.382    8.126      60.000    122.024   155.144   10.000    1.000     77.000    77.000    182.800    0.000      -7.312    7.370     -4.258    5.471     
6.283     405.000    191.628    7.056      60.000    124.234   155.144   10.000    1.000     77.000    77.000    182.800    0.000      -5.547    6.858     -4.298    4.298     
6.749     435.000    190.435    7.073      60.000    126.127   155.144   10.000    1.000     77.000    77.000    182.800    0.000      -7.492    9.899     -2.207    2.824     
7.214     465.000    188.843    6.500      60.000    127.307   155.144   10.000    1.000     77.000    77.000    182.800    0.000      -12.438   16.034    -1.953    2.485     
7.680     495.000    189.434    5.308      60.000    127.546   155.144   10.000    1.000     77.000    77.000    182.800    0.000      -9.009    11.729    -2.643    3.350     
8.145     525.000    189.755    4.336      60.000    126.821   155.144   10.000    1.000     77.000    77.000    182.800    0.000      -6.234    8.204     -4.478    4.478     
8.611     555.000    188.595    8.239      60.000    125.300   155.144   10.000    1.000     77.000    77.000    182.800    0.000      -6.579    8.668     -1.369    1.710     
9.076     585.000    191.062    7.143      60.000    123.267   155.144   10.000    1.000     77.000    77.000    182.800    0.000      -8.392    8.279     -3.040    3.040     
9.541     615.000    187.650    6.184      60.000    121.040   155.144   10.000    1.000     77.000    77.000    182.800    0.000      -6.358    8.494     -2.906    2.906     
10.007    645.000    187.392    6.194      60.000    118.914   155.144   10.000    1.000     77.000    77.000    182.800    0.000      -6.110    7.847     -3.467    2.432     
10.472    675.000    188.099    6.299      60.000    117.121   155.144   10.000    1.000     77.000    77.000    182.800    0.000      -9.241    11.938    -1.860    2.267     
10.938    705.000    196.513    1.573      60.000    115.836   155.144   10.000    1.000     77.000    77.000    182.800    0.000      -13.183   16.879    -5.175    5.175     
11.403    735.000    193.403    6.435      60.000    115.172   155.144   10.000    1.000     77.000    77.000    182.800    0.000      -16.245   21.410    -3.334    3.334     
11.869    765.000    188.060    6.364      60.000    115.178   155.144   10.000    1.000     77.000    77.000    182.800    0.000      -19.410   25.719    -2.807    2.807     
12.334    795.000    194.849    4.569      60.000    115.820   155.144   10.000    1.000     77.000    77.000    182.800    0.000      -21.217   26.443    -6.671    6.671     
12.799    825.000    201.688    8.453      60.000    116.986   155.144   10.000    1.000     77.000    77.000    182.800    0.000      -11.357   14.420    -3.373    2.972     
13.265    855.000    199.096    7.766      60.000    118.511   155.144   10.000    1.000     77.000    77.000    182.800    0.000      -7.798    10.171    -3.564    3.564     
14.196    915.000    200.918    8.196      60.000    122.051   155.144   10.000    1.000     77.000    77.000    182.800    0.000      -7.132    9.197     -3.854    3.854     
15.127    975.000    207.359    8.202      60.000    125.794   155.144   10.000    1.000     77.000    77.000    182.800    0.000      -11.218   13.265    -4.539    4.539     
15.592    1005.000   208.938    7.833      60.000    127.543   155.144   10.000    1.000     77.000    77.000    182.800    0.000      -12.559   15.978    -4.834    4.834     
17.454    1125.000   210.722    10.297     60.000    127.431   155.144   10.000    1.000     77.000    77.000    182.800    0.000      -8.401    10.395    -5.019    3.225     
17.919    1155.000   207.322    9.997      60.000    125.491   155.144   10.000    1.000     77.000    77.000    182.800    0.000      -8.757    10.742    -5.777    3.669     
18.385    1185.000   205.308    9.418      60.000    124.253   155.144   10.000    1.000     77.000    77.000    182.800    0.000      -7.999    10.383    -6.027    3.496     
