#RAD(Kpc) RAD(arcs)  VROT(km/s) DISP(km/s) INC(deg)  P.A.(deg) Z0(pc)    Z0(arcs)  SIG(E20)  XPOS(pix) YPOS(pix) VSYS(km/s) VRAD(km/s) E_VROT1   E_VROT2   E_DISP1   E_DISP2   
0.233     15.000     45.759     22.827     60.000    124.012   155.144   10.000    1.000     77.000    77.000    132.800    0.000      -4.547    4.457     -3.503    2.844     
0.698     45.000     66.706     21.254     60.000    124.012   155.144   10.000    1.000     77.000    77.000    132.800    0.000      -4.470    4.661     -2.778    2.652     
1.164     75.000     76.579     17.760     60.000    124.012   155.144   10.000    1.000     77.000    77.000    132.800    0.000      -4.362    3.728     -2.405    2.664     
1.629     105.000    83.956     16.344     60.000    124.012   155.144   10.000    1.000     77.000    77.000    132.800    0.000      -3.672    3.154     -2.112    2.025     
2.094     135.000    91.553     14.753     60.000    124.012   155.144   10.000    1.000     77.000    77.000    132.800    0.000      -3.027    2.703     -1.740    2.068     
2.560     165.000    96.831     14.313     60.000    124.012   155.144   10.000    1.000     77.000    77.000    132.800    0.000      -2.892    2.624     -1.583    1.542     
3.025     195.000    103.269    13.113     60.000    124.012   155.144   10.000    1.000     77.000    77.000    132.800    0.000      -2.245    2.150     -1.212    1.425     
3.491     225.000    109.633    12.752     60.000    124.012   155.144   10.000    1.000     77.000    77.000    132.800    0.000      -2.064    2.445     -1.566    1.592     
3.956     255.000    115.736    11.984     60.000    124.012   155.144   10.000    1.000     77.000    77.000    132.800    0.000      -2.125    1.870     -1.406    1.645     
4.422     285.000    120.611    12.489     60.000    124.012   155.144   10.000    1.000     77.000    77.000    132.800    0.000      -2.287    2.209     -1.561    1.652     
4.887     315.000    123.927    11.996     60.000    124.012   155.144   10.000    1.000     77.000    77.000    132.800    0.000      -2.924    2.853     -1.747    2.109     
5.352     345.000    125.622    11.648     60.000    124.012   155.144   10.000    1.000     77.000    77.000    132.800    0.000      -2.808    2.906     -1.839    1.823     
5.818     375.000    125.681    11.351     60.000    124.012   155.144   10.000    1.000     77.000    77.000    132.800    0.000      -2.442    2.715     -1.569    1.628     
6.283     405.000    126.513    10.752     60.000    124.012   155.144   10.000    1.000     77.000    77.000    132.800    0.000      -3.309    3.309     -1.597    1.714     
6.749     435.000    126.473    10.475     60.000    124.012   155.144   10.000    1.000     77.000    77.000    132.800    0.000      -3.280    3.263     -1.809    2.025     
7.214     465.000    126.529    10.342     60.000    124.012   155.144   10.000    1.000     77.000    77.000    132.800    0.000      -2.099    2.413     -1.667    1.823     
7.680     495.000    127.278    10.125     60.000    124.012   155.144   10.000    1.000     77.000    77.000    132.800    0.000      -0.769    0.822     -1.537    1.644     
8.145     525.000    127.201    10.688     60.000    124.012   155.144   10.000    1.000     77.000    77.000    132.800    0.000      -2.437    2.602     -1.638    1.414     
8.611     555.000    127.522    10.328     60.000    124.012   155.144   10.000    1.000     77.000    77.000    132.800    0.000      -2.545    2.445     -1.537    1.543     
9.076     585.000    126.885    9.720      60.000    124.012   155.144   10.000    1.000     77.000    77.000    132.800    0.000      -2.397    2.580     -1.339    1.575     
9.541     615.000    127.258    9.760      60.000    124.012   155.144   10.000    1.000     77.000    77.000    132.800    0.000      -2.683    1.909     -1.443    1.160     
10.007    645.000    127.539    9.090      60.000    124.012   155.144   10.000    1.000     77.000    77.000    132.800    0.000      -1.980    1.859     -1.392    1.306     
10.472    675.000    129.540    9.094      60.000    124.012   155.144   10.000    1.000     77.000    77.000    132.800    0.000      -2.111    2.087     -1.226    1.168     
10.938    705.000    130.948    9.166      60.000    124.012   155.144   10.000    1.000     77.000    77.000    132.800    0.000      -2.563    2.717     -1.067    1.024     
11.403    735.000    132.424    8.881      60.000    124.012   155.144   10.000    1.000     77.000    77.000    132.800    0.000      -2.173    2.426     -1.088    1.216     
11.869    765.000    133.849    8.762      60.000    124.012   155.144   10.000    1.000     77.000    77.000    132.800    0.000      -1.724    1.878     -1.023    1.248     
12.334    795.000    134.701    8.715      60.000    124.012   155.144   10.000    1.000     77.000    77.000    132.800    0.000      -1.556    2.362     -1.272    1.344     
12.799    825.000    135.524    9.204      60.000    124.012   155.144   10.000    1.000     77.000    77.000    132.800    0.000      -2.123    2.266     -1.272    1.528     
13.265    855.000    134.763    9.935      60.000    124.012   155.144   10.000    1.000     77.000    77.000    132.800    0.000      -2.090    2.964     -1.609    1.624     
13.730    885.000    134.248    9.878      60.000    124.012   155.144   10.000    1.000     77.000    77.000    132.800    0.000      -2.121    3.262     -1.782    2.000     
14.196    915.000    134.068    9.550      60.000    124.012   155.144   10.000    1.000     77.000    77.000    132.800    0.000      -2.656    2.762     -1.550    1.733     
14.661    945.000    134.421    9.444      60.000    124.012   155.144   10.000    1.000     77.000    77.000    132.800    0.000      -2.730    3.103     -1.664    1.534     
15.127    975.000    134.923    9.034      60.000    124.012   155.144   10.000    1.000     77.000    77.000    132.800    0.000      -2.755    2.337     -1.550    1.614     
15.592    1005.000   135.613    8.974      60.000    124.012   155.144   10.000    1.000     77.000    77.000    132.800    0.000      -3.305    2.963     -1.606    1.855     
16.057    1035.000   136.614    9.137      60.000    124.012   155.144   10.000    1.000     77.000    77.000    132.800    0.000      -3.546    3.224     -1.697    1.887     
16.523    1065.000   137.605    9.763      60.000    124.012   155.144   10.000    1.000     77.000    77.000    132.800    0.000      -4.320    3.965     -2.472    2.115     
16.988    1095.000   136.413    8.995      60.000    124.012   155.144   10.000    1.000     77.000    77.000    132.800    0.000      -3.467    3.716     -2.238    2.460     
17.454    1125.000   136.296    9.538      60.000    124.012   155.144   10.000    1.000     77.000    77.000    132.800    0.000      -3.360    2.797     -2.282    2.315     
17.919    1155.000   135.431    9.060      60.000    124.012   155.144   10.000    1.000     77.000    77.000    132.800    0.000      -3.193    2.603     -1.903    2.215     
18.385    1185.000   134.850    9.053      60.000    124.012   155.144   10.000    1.000     77.000    77.000    132.800    0.000      -3.514    3.108     -1.829    2.253     
18.850    1215.000   135.148    9.278      60.000    124.012   155.144   10.000    1.000     77.000    77.000    132.800    0.000      -4.017    3.355     -2.001    1.854     
