#RAD(Kpc) RAD(arcs)  VROT(km/s) DISP(km/s) INC(deg)  P.A.(deg) Z0(pc)    Z0(arcs)  SIG(E20)  XPOS(pix) YPOS(pix) VSYS(km/s) VRAD(km/s) E_VROT1   E_VROT2   E_DISP1   E_DISP2   
0.233     15.000     41.930     25.465     60.000    103.700   155.144   10.000    1.000     77.000    77.000    132.800    0.000      -3.549    3.816     -3.099    2.816     
0.698     45.000     58.110     24.358     60.000    103.700   155.144   10.000    1.000     77.000    77.000    132.800    0.000      -5.243    5.106     -4.457    3.633     
1.164     75.000     68.170     18.508     60.000    103.700   155.144   10.000    1.000     77.000    77.000    132.800    0.000      -4.519    4.960     -2.792    3.699     
1.629     105.000    76.674     18.229     60.000    103.700   155.144   10.000    1.000     77.000    77.000    132.800    0.000      -5.667    4.840     -3.160    3.545     
2.094     135.000    80.891     17.651     60.000    103.700   155.144   10.000    1.000     77.000    77.000    132.800    0.000      -5.004    5.529     -3.471    3.471     
2.560     165.000    87.979     16.834     60.000    103.700   155.144   10.000    1.000     77.000    77.000    132.800    0.000      -6.422    5.857     -3.534    3.840     
3.025     195.000    92.233     17.443     60.000    103.700   155.144   10.000    1.000     77.000    77.000    132.800    0.000      -7.110    7.445     -4.241    4.692     
3.491     225.000    95.494     19.649     60.000    103.700   155.144   10.000    1.000     77.000    77.000    132.800    0.000      -9.222    8.755     -5.485    5.659     
3.956     255.000    101.101    20.765     60.000    103.700   155.144   10.000    1.000     77.000    77.000    132.800    0.000      -10.184   10.703    -6.298    6.827     
4.422     285.000    100.313    23.725     60.000    103.700   155.144   10.000    1.000     77.000    77.000    132.800    0.000      -14.197   13.891    -8.279    8.308     
4.887     315.000    98.459     23.979     60.000    103.700   155.144   10.000    1.000     77.000    77.000    132.800    0.000      -14.433   15.942    -8.605    9.113     
5.352     345.000    99.258     24.041     60.000    103.700   155.144   10.000    1.000     77.000    77.000    132.800    0.000      -15.295   15.539    -8.971    9.271     
5.818     375.000    96.431     22.816     60.000    103.700   155.144   10.000    1.000     77.000    77.000    132.800    0.000      -13.084   14.304    -8.165    8.094     
6.283     405.000    103.173    21.911     60.000    103.700   155.144   10.000    1.000     77.000    77.000    132.800    0.000      -13.606   13.843    -7.612    7.838     
6.749     435.000    100.898    20.154     60.000    103.700   155.144   10.000    1.000     77.000    77.000    132.800    0.000      -13.837   13.171    -6.892    7.454     
7.214     465.000    95.262     16.675     60.000    103.700   155.144   10.000    1.000     77.000    77.000    132.800    0.000      -10.714   11.439    -5.523    6.479     
7.680     495.000    97.500     16.625     60.000    103.700   155.144   10.000    1.000     77.000    77.000    132.800    0.000      -10.105   12.127    -5.416    6.457     
8.145     525.000    101.239    17.222     60.000    103.700   155.144   10.000    1.000     77.000    77.000    132.800    0.000      -11.402   12.118    -5.762    6.584     
8.611     555.000    101.924    17.303     60.000    103.700   155.144   10.000    1.000     77.000    77.000    132.800    0.000      -11.756   12.210    -6.478    6.855     
9.076     585.000    103.125    16.031     60.000    103.700   155.144   10.000    1.000     77.000    77.000    132.800    0.000      -11.459   11.446    -5.873    6.941     
9.541     615.000    107.092    18.213     60.000    103.700   155.144   10.000    1.000     77.000    77.000    132.800    0.000      -12.153   12.575    -7.158    7.734     
10.007    645.000    111.914    19.236     60.000    103.700   155.144   10.000    1.000     77.000    77.000    132.800    0.000      -13.960   14.059    -7.791    8.841     
10.472    675.000    112.178    20.750     60.000    103.700   155.144   10.000    1.000     77.000    77.000    132.800    0.000      -13.755   16.697    -9.617    9.865     
10.938    705.000    113.752    20.746     60.000    103.700   155.144   10.000    1.000     77.000    77.000    132.800    0.000      -15.984   17.594    -9.346    11.539    
11.403    735.000    117.539    21.439     60.000    103.700   155.144   10.000    1.000     77.000    77.000    132.800    0.000      -18.168   18.267    -11.265   11.900    
11.869    765.000    112.617    22.443     60.000    103.700   155.144   10.000    1.000     77.000    77.000    132.800    0.000      -17.531   21.357    -10.776   12.805    
12.334    795.000    115.679    22.579     60.000    103.700   155.144   10.000    1.000     77.000    77.000    132.800    0.000      -19.963   24.378    -11.155   11.155    
12.799    825.000    126.797    22.543     60.000    103.700   155.144   10.000    1.000     77.000    77.000    132.800    0.000      -23.112   24.987    -13.381   13.381    
13.265    855.000    97.207     9.644      60.000    103.700   155.144   10.000    1.000     77.000    77.000    132.800    0.000      -24.014   24.014    -6.695    6.695     
13.730    885.000    97.500     10.875     60.000    103.700   155.144   10.000    1.000     77.000    77.000    132.800    0.000      -21.740   28.349    -10.982   10.982    
14.661    945.000    112.500    9.125      60.000    103.700   155.144   10.000    1.000     77.000    77.000    132.800    0.000      -32.341   32.341    -5.697    5.697     
15.592    1005.000   105.000    9.750      60.000    103.700   155.144   10.000    1.000     77.000    77.000    132.800    0.000      -23.430   23.430    -8.616    8.616     
16.057    1035.000   108.750    8.688      60.000    103.700   155.144   10.000    1.000     77.000    77.000    132.800    0.000      -24.434   34.000    -12.217   17.000    
16.523    1065.000   114.609    9.066      60.000    103.700   155.144   10.000    1.000     77.000    77.000    132.800    0.000      -25.212   30.561    -6.543    6.543     
16.988    1095.000   116.719    8.961      60.000    103.700   155.144   10.000    1.000     77.000    77.000    132.800    0.000      -25.924   37.281    -8.963    8.963     
17.454    1125.000   112.500    9.625      60.000    103.700   155.144   10.000    1.000     77.000    77.000    132.800    0.000      -22.572   22.572    -7.163    7.163     
17.919    1155.000   117.188    9.172      60.000    103.700   155.144   10.000    1.000     77.000    77.000    132.800    0.000      -22.506   22.506    -8.188    8.188     
